#Wave		#Intensity
3199.122070	7090.538574
3198.353516	7064.518555
3197.584961	7056.846191
3196.815430	7016.661133
3196.046875	7048.009766
3195.277344	7040.343262
3194.508789	7016.429688
3193.739258	6927.537598
3192.969727	7059.591797
3192.200195	6798.564453
3191.429688	6969.568359
3190.660156	6991.145508
3189.889648	6947.782715
3189.120117	6862.234863
3188.349609	7065.569336
3187.579102	6944.334473
3186.808594	6875.051270
3186.038086	6825.254395
3185.267578	6947.374512
3184.496094	7053.239746
3183.725586	6860.774902
3182.954102	7044.421875
3182.182617	7059.462402
3181.411133	6944.868652
3180.639648	6982.601563
3179.868164	6984.685547
3179.096680	7122.811035
3178.324219	6933.794922
3177.552734	6997.407715
3176.780273	7002.724609
3176.007813	6978.906738
3175.235352	7162.228027
3174.462891	6934.529297
3173.690430	6910.733887
3172.916992	6980.755859
3172.144531	6989.303223
3171.371094	7030.184570
3170.597656	7009.621582
3169.824219	6943.807129
3169.050781	7065.479004
3168.277344	7158.025879
3167.503906	6836.963379
3166.729492	6945.669922
3165.956055	7148.010254
3165.181641	7020.876953
3164.407227	7032.629883
3163.632813	7089.576660
3162.858398	7020.617188
3162.083984	7051.727539
3161.309570	7034.425781
3160.534180	6965.508789
3159.759766	7061.126953
3158.984375	7076.083008
3158.208984	6994.294434
3157.433594	7047.945801
3156.658203	7108.026855
3155.881836	7035.941895
3155.106445	7073.446289
3154.331055	7036.832520
3153.554688	7145.196289
3152.778320	6979.745117
3152.001953	7068.759277
3151.225586	6983.872070
3150.449219	7143.680664
3149.672852	6955.807129
3148.895508	7096.257813
3148.118164	7188.395508
3147.341797	6965.218262
3146.564453	7076.646973
3145.787109	7014.367676
3145.009766	6932.814941
3144.232422	6957.386230
3143.454102	6924.087891
3142.676758	7080.425781
3141.898438	7040.690430
3141.120117	6936.709961
3140.341797	7015.869629
3139.563477	7101.426758
3138.785156	6913.992676
3138.006836	7118.336914
3137.227539	7158.890137
3136.449219	7128.815918
3135.669922	6842.015137
3134.890625	7116.825684
3134.111328	7038.650391
3133.332031	7063.144043
3132.552734	6962.553711
3131.773438	7112.106445
3130.993164	6934.596191
3130.212891	6955.884766
3129.433594	6999.600098
3128.653320	6934.351074
3127.873047	6869.123047
3127.092773	6980.101074
3126.311523	7017.376953
3125.531250	6955.369629
3124.750000	6976.627930
3123.969727	7180.349121
3123.188477	7063.933105
3122.407227	7238.770020
3121.625977	7115.982910
3120.843750	6999.634766
3120.062500	7081.636230
3119.281250	7074.065430
3118.499023	7101.668945
3117.716797	7126.066406
3116.934570	6933.097168
3116.152344	7168.444336
3115.370117	7141.691895
3114.587891	6993.542969
3113.804688	6950.856445
3113.022461	7007.190918
3112.239258	7012.414551
3111.456055	6893.119141
3110.672852	7057.970215
3109.889648	6983.390137
3109.106445	7071.583008
3108.323242	7146.983887
3107.539063	6903.350586
3106.755859	6918.152344
3105.971680	7082.833496
3105.187500	7234.705566
3104.403320	6911.519531
3103.619141	7002.807617
3102.834961	7052.635742
3102.049805	7003.668945
3101.265625	6970.647461
3100.480469	6972.675293
3099.695313	7105.278809
3098.910156	7062.703125
3098.125000	6924.629883
3097.339844	7082.640137
3096.553711	7065.550293
3095.768555	6914.815918
3094.982422	7126.835938
3094.197266	7116.108887
3093.411133	7200.802246
3092.625000	7059.684570
3091.838867	7083.947754
3091.051758	6933.358887
3090.265625	7040.274414
3089.478516	7134.442871
3088.692383	7117.370605
3087.905273	7230.555176
3087.118164	7226.177734
3086.331055	7031.252441
3085.542969	7188.848633
3084.755859	7095.585938
3083.968750	6938.869629
3083.180664	7055.143555
3082.392578	6949.256348
3081.604492	7002.036621
3080.816406	7010.389160
3080.028320	7110.715332
3079.240234	7242.718262
3078.451172	7044.940918
3077.663086	7008.899902
3076.874023	7204.243164
3076.084961	7187.200684
3075.295898	7040.257813
3074.506836	7010.576660
3073.717773	7158.277832
3072.928711	7052.582031
3072.138672	7051.409180
3071.348633	7205.361328
3070.559570	7242.146484
3069.769531	7022.574707
3068.979492	7021.407227
3068.189453	6994.930176
3067.398438	6984.277344
3066.608398	7084.320801
3065.817383	7225.437988
3065.026367	7224.236328
3064.236328	7134.524902
3063.445313	7089.090820
3062.654297	7100.551758
3061.862305	7184.677246
3061.071289	7256.138184
3060.279297	7182.287109
3059.488281	6918.985840
3058.696289	7072.546875
3057.904297	7203.958496
3057.112305	7123.851563
3056.320313	6961.720215
3055.527344	7222.450684
3054.735352	7066.666016
3053.942383	7030.793457
3053.150391	7086.390625
3052.357422	7129.355957
3051.564453	7307.871582
3050.770508	7246.764648
3049.977539	7091.129883
3049.184570	7197.086914
3048.390625	7095.071289
3047.597656	7251.392090
3046.803711	7196.643555
3046.009766	7066.337402
3045.215820	7197.396973
3044.420898	7148.979492
3043.626953	7150.937012
3042.833008	7127.718750
3042.038086	7145.410156
3041.243164	7043.553711
3040.448242	7161.903320
3039.653320	7295.937500
3038.858398	7197.250488
3038.063477	7136.320801
3037.267578	7075.411133
3036.472656	7083.661133
3035.676758	7154.751953
3034.880859	7301.218750
3034.084961	7212.050781
3033.289063	7110.350586
3032.493164	6986.702637
3031.696289	6922.748047
3030.900391	7241.777344
3030.103516	7055.398438
3029.306641	7226.813477
3028.509766	7285.221680
3027.712891	7171.078125
3026.916016	7166.747070
3026.119141	7090.291504
3025.321289	6944.882813
3024.524414	7225.863770
3023.726563	7158.838379
3022.928711	7120.040039
3022.130859	7172.120117
3021.333008	7114.535156
3020.534180	7053.836914
3019.736328	7146.613281
3018.937500	7242.490234
3018.139648	7256.937012
3017.340820	7252.597168
3016.541992	7348.407715
3015.743164	7275.213379
3014.944336	7283.386719
3014.144531	7235.251465
3013.345703	7268.448730
3012.545898	7242.221191
3011.746094	7272.279297
3010.946289	7183.539063
3010.146484	7194.843750
3009.346680	7249.893555
3008.546875	7151.827637
3007.746094	7153.759277
3006.945313	7280.625488
3006.145508	7366.852051
3005.344727	7225.118164
3004.543945	7526.730957
3003.743164	7278.892578
3002.941406	7171.572266
3002.140625	7304.547852
3001.338867	7181.659668
3000.538086	7439.357910
2999.736328	7269.707031
2998.934570	7468.058594
2998.132813	7354.577148
2997.330078	7381.404785
2996.528320	7255.508789
2995.725586	7176.395996
2994.923828	7368.365234
2994.121094	7242.533691
2993.318359	7272.470703
2992.515625	7187.179199
2991.712891	7192.207031
2990.909180	7262.605957
2990.106445	7370.330566
2989.302734	7384.660645
2988.499023	7277.640137
2987.695313	7170.654785
2986.891602	7433.841797
2986.087891	7385.953125
2985.284180	7269.674805
2984.479492	7200.066895
2983.675781	7357.389648
2982.871094	7129.292480
2982.066406	7239.964844
2981.261719	7179.728027
2980.457031	7464.304199
2979.652344	7410.260742
2978.846680	7275.500000
2978.041992	7255.657715
2977.236328	7254.446289
2976.430664	7312.205078
2975.625000	7171.343262
2974.819336	7244.608887
2974.013672	7187.561523
2973.208008	7257.697754
2972.401367	7454.954102
2971.594727	7298.682129
2970.789063	7291.263184
2969.982422	7283.846680
2969.175781	7511.956055
2968.368164	7442.535156
2967.561523	7301.884277
2966.754883	7229.423828
2965.947266	7308.736328
2965.139648	7214.623535
2964.332031	7309.391113
2963.524414	7212.213867
2962.716797	7251.242188
2961.909180	7379.993164
2961.100586	7242.632324
2960.292969	7284.728516
2959.484375	7441.243652
2958.675781	7334.863281
2957.867188	7225.426758
2957.058594	7202.581055
2956.250000	7108.655762
2955.440430	7224.895996
2954.631836	7356.545410
2953.822266	7333.691895
2953.012695	7366.441406
2952.203125	7402.268066
2951.393555	7166.372070
2950.583984	7279.396973
2949.773438	7293.613281
2948.963867	7304.738770
2948.153320	7374.485840
2947.342773	7283.787109
2946.532227	7516.993652
2945.721680	7561.997070
2944.911133	7292.468750
2944.100586	7223.424316
2943.289063	7228.381836
2942.478516	7368.942871
2941.666992	7336.896484
2940.855469	7415.773926
2940.043945	7266.674805
2939.232422	7385.575195
2938.419922	7430.531250
2937.608398	7438.524902
2936.795898	7384.949219
2935.983398	7436.037598
2935.171875	7367.093262
2934.358398	7372.014648
2933.545898	7336.942383
2932.733398	7464.897949
2931.920898	7451.348145
2931.107422	7431.653320
2930.293945	7350.480469
2929.480469	7281.629395
2928.666992	7344.948242
2927.853516	7426.682129
2927.040039	7299.480469
2926.226563	7276.757813
2925.412109	7336.963379
2924.597656	7572.174316
2923.783203	7359.069336
2922.968750	7456.065430
2922.154297	7442.541504
2921.339844	7413.678711
2920.525391	7470.731445
2919.709961	7349.846680
2918.894531	7351.683594
2918.080078	7430.183105
2917.264648	7309.365234
2916.449219	7409.303223
2915.632813	7481.622559
2914.817383	7449.725586
2914.000977	7454.606445
2913.185547	7404.343750
2912.369141	7341.845215
2911.552734	7466.175293
2910.736328	7363.882813
2909.919922	7390.202637
2909.102539	7422.634766
2908.286133	7286.735840
2907.468750	7585.381836
2906.651367	7581.052246
2905.833984	7484.958984
2905.016602	7514.288574
2904.199219	7283.694824
2903.381836	7309.990723
2902.563477	7351.561523
2901.746094	7527.594238
2900.927734	7419.381836
2900.109375	7421.194336
2899.291016	7410.787109
2898.472656	7293.485352
2897.654297	7420.519531
2896.834961	7498.659668
2896.015625	7476.034668
2895.197266	7340.486328
2894.377930	7500.994629
2893.558594	7518.044922
2892.739258	7452.722168
2891.918945	7344.718750
2891.099609	7434.976563
2890.279297	7458.123535
2889.459961	7499.554199
2888.639648	7248.354492
2887.819336	7472.660156
2886.999023	7590.243652
2886.177734	7549.366211
2885.357422	7672.988770
2884.536133	7488.970703
2883.715820	7429.859863
2882.894531	7452.970703
2882.073242	7357.357422
2881.251953	7480.907227
2880.429688	7604.415527
2879.608398	7435.804688
2878.786133	7595.782227
2877.964844	7594.508789
2877.142578	7480.720703
2876.320313	7622.366699
2875.498047	7499.491699
2874.674805	7464.800293
2873.852539	7664.116211
2873.029297	7641.562500
2872.207031	7561.295898
2871.383789	7581.289551
2870.560547	7397.806152
2869.737305	7581.783203
2868.913086	7440.862305
2868.089844	7579.240234
2867.266602	7550.655273
2866.442383	7549.388672
2865.618164	7721.049805
2864.793945	7616.622070
2863.969727	7672.967285
2863.145508	7438.194336
2862.320313	7579.439941
2861.496094	7744.887695
2860.670898	7452.635742
2859.845703	7463.505859
2859.020508	7698.573730
2858.195313	7706.369141
2857.370117	7638.444336
2856.544922	7688.642090
2855.718750	7596.520508
2854.892578	7401.504883
2854.067383	7715.038574
2853.241211	7577.565430
2852.415039	7549.062500
2851.587891	7487.291992
2850.761719	7516.281738
2849.934570	7505.947754
2849.108398	7519.805664
2848.281250	7612.260742
2847.454102	7607.959961
2846.626953	7709.435059
2845.799805	7572.167969
2844.971680	7555.791016
2844.144531	7627.016602
2843.316406	7649.896484
2842.488281	7687.866699
2841.660156	7650.346680
2840.832031	7582.653320
2840.003906	7584.397949
2839.175781	7649.510742
2838.346680	7609.004395
2837.518555	7541.362305
2836.689453	7564.223633
2835.860352	7620.248535
2835.031250	7646.103516
2834.202148	7548.354492
2833.372070	7580.240723
2832.542969	7572.939941
2831.712891	7580.707031
2830.882813	7618.595703
2830.052734	7427.560547
2829.222656	7709.391602
2828.392578	7674.975586
2827.562500	7661.644043
2826.731445	7687.446289
2825.901367	7631.984375
2825.070313	7657.782227
2824.239258	7821.959961
2823.408203	7784.549805
2822.576172	7683.996094
2821.745117	7574.455078
2820.914063	7642.329590
2820.082031	7574.915039
2819.250000	7624.733887
2818.417969	7614.437500
2817.585938	7453.923828
2816.753906	7656.935547
2815.921875	7688.686035
2815.088867	7549.260254
2814.255859	7599.031738
2813.423828	7633.776367
2812.590820	7677.513184
2811.757813	7538.182617
2810.923828	7485.908691
2810.090820	7664.641113
2809.256836	7576.371094
2808.423828	7527.115234
2807.589844	7744.728516
2806.755859	7524.583496
2805.921875	7595.253906
2805.087891	7590.979492
2804.252930	7676.596191
2803.418945	7600.409180
2802.583984	7656.041992
2801.749023	7687.696777
2800.914063	7689.397949
2800.079102	7670.141113
2799.244141	7704.770508
2798.409180	7538.870117
2797.573242	7675.247070
2796.737305	7554.283691
2795.902344	7708.560059
2795.066406	7668.382324
2794.230469	7469.732910
2793.393555	7617.965332
2792.557617	7589.779297
2791.720703	7445.041016
2790.884766	7608.142578
2790.047852	7618.813477
2789.210938	7713.123535
2788.374023	7753.639648
2787.537109	7758.307129
2786.699219	7607.712891
2785.862305	7728.827637
2785.024414	7590.228027
2784.186523	7687.430176
2783.348633	7527.997070
2782.510742	7690.808105
2781.672852	7677.582520
2780.833984	7625.591309
2779.996094	7418.567383
2779.157227	7542.529785
2778.318359	7577.028320
2777.479492	7671.120117
2776.640625	7637.050781
2775.801758	7647.681641
2774.961914	7652.350586
2774.123047	7645.105469
2773.283203	7652.750977
2772.443359	7443.056152
2771.603516	7745.427734
2770.763672	7583.407227
2769.923828	7695.206543
2769.083008	7470.769043
2768.243164	7505.207031
2767.402344	7634.807617
2766.561523	7672.179688
2765.720703	7498.440430
2764.879883	7693.375977
2764.039063	7810.967773
2763.197266	7726.443359
2762.355469	7793.479004
2761.514648	7649.571777
2760.672852	7689.865234
2759.831055	7733.114746
2758.989258	7648.673340
2758.146484	7685.977539
2757.304688	7773.728027
2756.461914	7692.289551
2755.619141	7652.418945
2754.777344	7665.962402
2753.933594	7608.312012
2753.090820	7734.554688
2752.248047	7768.833008
2751.404297	7696.370117
2750.561523	7754.356445
2749.717773	7836.032715
2748.874023	7733.961914
2748.030273	7682.291992
2747.186523	7876.501953
2746.341797	7777.437012
2745.498047	7675.444336
2744.653320	7836.988770
2743.808594	7735.019531
2742.963867	7875.780762
2742.119141	7738.328613
2741.274414	7787.321289
2740.429688	7901.377930
2739.583984	7799.482910
2738.739258	7857.311035
2737.893555	7625.361816
2737.047852	7833.966309
2736.202148	7767.618652
2735.355469	7828.367676
2734.509766	7720.676758
2733.663086	7601.205078
2732.817383	7927.785156
2731.970703	7846.710449
2731.124023	7827.669922
2730.277344	7817.492188
2729.429688	7827.979492
2728.583008	7879.780273
2727.735352	7972.873535
2726.888672	7859.418945
2726.041016	7899.388184
2725.193359	7898.054688
2724.345703	7761.079590
2723.497070	7706.700684
2722.649414	7835.100098
2721.800781	7683.467773
2720.952148	7879.602539
2720.104492	7981.390625
2719.255859	7868.104492
2718.406250	8005.202637
2717.557617	7874.281250
2716.708008	7908.282715
2715.859375	7856.903320
2715.009766	7802.597168
2714.160156	7833.649902
2713.310547	7705.809082
2712.460938	7942.791016
2711.610352	7964.979492
2710.760742	7869.529297
2709.910156	8015.213867
2709.059570	7843.352051
2708.209961	7921.387695
2707.358398	7849.518555
2706.507813	7909.896484
2705.657227	7861.555176
2704.805664	7921.910156
2703.955078	7888.266602
2703.103516	7822.334473
2702.251953	7944.316895
2701.400391	7904.814941
2700.547852	7853.586914
2699.696289	7899.208984
2698.843750	8170.720215
2697.992188	7796.805176
2697.139648	7904.002441
2696.287109	7958.380859
2695.433594	8042.059082
2694.581055	8020.180176
2693.728516	7919.175293
2692.875000	7920.766602
2692.021484	7928.216797
2691.167969	7906.370605
2690.314453	7673.652832
2689.460938	7830.487793
2688.607422	7764.750000
2687.752930	7798.565430
2686.899414	7756.270020
2686.044922	7898.352051
2685.190430	8104.755371
2684.335938	7922.009277
2683.481445	8055.215332
2682.625977	8012.911133
2681.771484	7891.674316
2680.916016	7893.263184
2680.060547	7921.157227
2679.205078	7913.972168
2678.349609	7868.803711
2677.494141	8045.681152
2676.637695	7901.192871
2675.782227	7818.083008
2674.925781	7875.159668
2674.069336	7984.767090
2673.212891	8056.390137
2672.356445	8008.331055
2671.500000	7904.846191
2670.642578	8034.795898
2669.786133	7945.925781
2668.928711	7912.499023
2668.071289	8176.517578
2667.213867	7863.172363
2666.356445	7925.971680
2665.498047	7971.262695
2664.640625	8156.412109
2663.782227	8000.612793
2662.923828	8037.128418
2662.065430	8012.466797
2661.207031	7932.484375
2660.348633	8012.665527
2659.490234	7973.464355
2658.630859	7975.024902
2657.771484	7956.213867
2656.913086	7876.306641
2656.053711	8084.429199
2655.193359	7908.542480
2654.333984	7793.786133
2653.474609	7812.819336
2652.614258	7924.874512
2651.753906	8048.518066
2650.893555	7916.377441
2650.033203	7920.848145
2649.172852	7858.497559
2648.312500	7845.547363
2647.451172	7911.014160
2646.590820	7921.288574
2645.729492	7946.075195
2644.868164	7872.161133
2644.006836	7876.631348
2643.145508	7924.625977
2642.283203	7937.789551
2641.421875	7974.153809
2640.559570	7946.700195
2639.697266	8041.045410
2638.834961	8001.992188
2637.972656	8064.408691
2637.110352	7889.144531
2636.248047	7966.047852
2635.384766	7880.675293
2634.521484	7951.759766
2633.658203	8060.471680
2632.794922	8128.605469
2631.931641	7988.250488
2631.068359	8062.162109
2630.204102	8063.689453
2629.340820	7767.147461
2628.476563	7974.153809
2627.612305	8100.088379
2626.748047	8243.334961
2625.883789	7886.231934
2625.018555	8069.945313
2624.154297	8007.866699
2623.289063	8026.741699
2622.423828	7875.103027
2621.558594	7992.234863
2620.693359	7938.877441
2619.828125	8029.961914
2618.961914	8034.375488
2618.096680	7897.300293
2617.230469	7991.231445
2616.364258	8102.449707
2615.498047	8089.530762
2614.631836	7923.682617
2613.765625	7936.763184
2612.898438	8120.027832
2612.032227	8098.461426
2611.165039	8042.298828
2610.297852	8020.752441
2609.430664	8068.395020
2608.563477	7977.680176
2607.695313	8048.366699
2606.828125	8029.713867
2605.959961	8097.485840
2605.091797	8058.669434
2604.223633	8189.765625
2603.355469	8116.395996
2602.487305	8077.594727
2601.618164	8027.293945
2600.750000	8060.463379
2599.880859	8027.445313
2599.011719	8103.753906
2598.142578	8036.224121
2597.273438	8132.635254
2596.403320	8183.008789
2595.534180	8109.749512
2594.664063	8048.012207
2593.793945	8233.442383
2592.923828	8243.537109
2592.053711	8213.408203
2591.183594	8082.757813
2590.313477	8026.819336
2589.442383	8097.239746
2588.571289	8121.702148
2587.700195	8304.027344
2586.829102	8133.291992
2585.958008	8269.641602
2585.086914	8159.217285
2584.215820	8152.094238
2583.343750	8202.332031
2582.471680	8157.925781
2581.599609	8093.465820
2580.727539	8026.161133
2579.855469	8176.694824
2578.982422	8138.053711
2578.110352	8282.786133
2577.237305	8201.171875
2576.364258	8171.136719
2575.491211	8092.431641
2574.618164	8302.923828
2573.745117	8152.657227
2572.872070	8125.512207
2571.998047	8212.840820
2571.124023	8105.582031
2570.250000	8230.072266
2569.375977	8231.533203
2568.501953	8258.729492
2567.627930	8142.958008
2566.752930	8121.562012
2565.878906	8163.054199
2565.003906	8178.812012
2564.128906	8060.273926
2563.253906	8238.877930
2562.377930	8311.740234
2561.502930	8350.306641
2560.626953	8154.726074
2559.751953	8241.837891
2558.875977	8180.494629
2558.000000	8082.072266
2557.123047	8149.177734
2556.247070	8187.731445
2555.371094	8189.190430
2554.494141	8241.983398
2553.617188	8251.986328
2552.740234	8108.035156
2551.863281	8055.347656
2550.986328	8327.572266
2550.108398	8385.994141
2549.231445	8168.043457
2548.353516	8294.835938
2547.475586	8299.119141
2546.597656	8215.127930
2545.719727	8353.235352
2544.841797	8237.950195
2543.962891	8287.777344
2543.084961	8135.549805
2542.206055	8364.618164
2541.327148	8320.524414
2540.448242	8319.107422
2539.569336	8181.195801
2538.689453	8225.292969
2537.810547	8448.464844
2536.930664	8452.709961
2536.050781	8286.451172
2535.170898	8347.546875
2534.291016	8212.609375
2533.411133	8310.620117
2532.530273	8187.093262
2531.649414	8219.770508
2530.769531	8351.793945
2529.888672	8248.191406
2529.007813	8351.786133
2528.125977	8282.266602
2527.245117	8181.564941
2526.363281	8140.460938
2525.482422	8272.362305
2524.600586	8253.939453
2523.718750	8229.853516
2522.836914	8228.451172
2521.954102	8391.418945
2521.072266	8330.485352
2520.189453	8252.574219
2519.306641	8152.028809
2518.423828	8190.288086
2517.541016	8228.534180
2516.658203	8289.415039
2515.775391	8372.919922
2514.891602	8246.966797
2514.007813	8121.056641
